
 #Temperature(K) Mole_per_cc 
 500.000000       1.02349615E-03
   501.000000       1.04813243E-03
   502.000000       1.07276870E-03
   503.000000       1.09740510E-03
   504.000000       1.12204137E-03
   505.000000       1.14667765E-03
   506.000000       1.17131404E-03
   507.000000       1.19595032E-03
   508.000000       1.22058671E-03
   509.000000       1.24522299E-03
   510.000000       1.26985926E-03
   511.000000       1.29449565E-03
   512.000000       1.31913193E-03
   513.000000       1.34376832E-03
   514.000000       1.36840460E-03
   515.000000       1.39304087E-03
   516.000000       1.41767727E-03
   517.000000       1.44231354E-03
   518.000000       1.46694994E-03
   519.000000       1.49158621E-03
   520.000000       1.51622249E-03
   521.000000       1.54085876E-03
   522.000000       1.56549516E-03
   523.000000       1.59013155E-03
   524.000000       1.61476783E-03
   525.000000       1.63940410E-03
   526.000000       1.66404038E-03
   527.000000       1.68867677E-03
   528.000000       1.71331305E-03
   529.000000       1.73794944E-03
   530.000000       1.76258571E-03
   531.000000       1.78722199E-03
   532.000000       1.81185827E-03
   533.000000       1.83649466E-03
   534.000000       1.86820771E-03
   535.000000       1.90116989E-03
   536.000000       1.93413196E-03
   537.000000       1.96709414E-03
   538.000000       2.00005621E-03
   539.000000       2.03301827E-03
   540.000000       2.06598034E-03
   541.000000       2.09894264E-03
   542.000000       2.13190471E-03
   543.000000       2.16486678E-03
   544.000000       2.19782884E-03
   545.000000       2.23079091E-03
   546.000000       2.26375321E-03
   547.000000       2.29671528E-03
   548.000000       2.32967734E-03
   549.000000       2.36263941E-03
   550.000000       2.39560148E-03
   551.000000       2.42856378E-03
   552.000000       2.46152584E-03
   553.000000       2.49448791E-03
   554.000000       2.52745021E-03
   555.000000       2.56041228E-03
   556.000000       2.59337435E-03
   557.000000       2.62633641E-03
   558.000000       2.65929848E-03
   559.000000       2.69226078E-03
   560.000000       2.72522285E-03
   561.000000       2.75818491E-03
   562.000000       2.79114698E-03
   563.000000       2.82410905E-03
   564.000000       2.85707135E-03
   565.000000       2.89003341E-03
   566.000000       2.92299548E-03
   567.000000       2.95595778E-03
   568.000000       2.98891962E-03
   569.000000       3.02188192E-03
   570.000000       3.05484398E-03
   571.000000       3.08780605E-03
   572.000000       3.12076835E-03
   573.000000       3.15373018E-03
   574.000000       3.18669248E-03
   575.000000       3.21965455E-03
   576.000000       3.25261662E-03
   577.000000       3.28557892E-03
   578.000000       3.31854075E-03
   579.000000       3.35150305E-03
   580.000000       3.38446512E-03
   581.000000       3.41742719E-03
   582.000000       3.45038949E-03
   583.000000       3.48335155E-03
   584.000000       3.53114703E-03
   585.000000       3.58156092E-03
   586.000000       3.63197457E-03
   587.000000       3.68238846E-03
   588.000000       3.73280211E-03
   589.000000       3.78321600E-03
   590.000000       3.83362966E-03
   591.000000       3.88404354E-03
   592.000000       3.93445743E-03
   593.000000       3.98487085E-03
   594.000000       4.03528474E-03
   595.000000       4.08569863E-03
   596.000000       4.13611252E-03
   597.000000       4.18652594E-03
   598.000000       4.23693983E-03
   599.000000       4.28735372E-03
   600.000000       4.33776760E-03
   601.000000       4.38818103E-03
   602.000000       4.43859491E-03
   603.000000       4.48900880E-03
   604.000000       4.53942269E-03
   605.000000       4.58983611E-03
   606.000000       4.64025000E-03
   607.000000       4.69066389E-03
   608.000000       4.74107731E-03
   609.000000       4.79149120E-03
   610.000000       4.84190509E-03
   611.000000       4.89231898E-03
   612.000000       4.94273286E-03
   613.000000       4.99314629E-03
   614.000000       5.04356017E-03
   615.000000       5.09397406E-03
   616.000000       5.14438748E-03
   617.000000       5.19480137E-03
   618.000000       5.24521526E-03
   619.000000       5.29562915E-03
   620.000000       5.34604304E-03
   621.000000       5.39645646E-03
   622.000000       5.44687035E-03
   623.000000       5.49728423E-03
   624.000000       5.54769766E-03
   625.000000       5.59811154E-03
   626.000000       5.64852543E-03
   627.000000       5.69893885E-03
   628.000000       5.74935321E-03
   629.000000       5.79976663E-03
   630.000000       5.85018052E-03
   631.000000       5.90059441E-03
   632.000000       5.95100783E-03
   633.000000       6.00142172E-03


 
  
   
   
   
   
